# %ECSV 0.9
# ---
# datatype:
# - {name: wavelength, unit: nm, datatype: float64}
# - {name: response, datatype: float64}
# meta: !!omap
# - {url: 'http://www.ctio.noao.edu/noao/content/dark-energy-camera-decam'}
# - {band_name: Y}
# - {airmass: 1.3}
# - {description: 'DECam Y-band throughput from a spreadsheet created in 2014 by William
#     Wester.
# 
#     Throughputs include an airmass 1.3 reference atmosphere provided by Ting Li.'}
# - {group_name: decam2014}
wavelength response
333.0 0.0
334.0 5e-05
335.0 6e-05
336.0 7e-05
337.0 8e-05
338.0 9e-05
339.0 9e-05
340.0 0.0001
341.0 0.00011
342.0 0.00012
343.0 0.00011
344.0 0.0001
345.0 9e-05
346.0 8e-05
347.0 7e-05
348.0 6e-05
349.0 5e-05
350.0 4e-05
351.0 2e-05
352.0 1e-05
353.0 2e-05
354.0 3e-05
355.0 4e-05
356.0 4e-05
357.0 5e-05
358.0 6e-05
359.0 7e-05
360.0 8e-05
361.0 9e-05
362.0 9e-05
363.0 0.0001
364.0 0.0001
365.0 0.00011
366.0 0.00012
367.0 0.00012
368.0 0.00013
369.0 0.00014
370.0 0.00014
371.0 0.00015
372.0 0.00014
373.0 0.00012
374.0 0.00011
375.0 0.0001
376.0 8e-05
377.0 7e-05
378.0 5e-05
379.0 4e-05
380.0 2e-05
381.0 1e-05
391.0 1e-05
392.0 2e-05
393.0 4e-05
394.0 6e-05
395.0 8e-05
396.0 0.0001
397.0 0.00012
398.0 0.00014
399.0 0.00016
400.0 0.00018
402.0 0.00018
403.0 0.00019
404.0 0.00019
405.0 0.0002
406.0 0.0002
407.0 0.00021
408.0 0.00021
409.0 0.00022
410.0 0.00023
411.0 0.00024
412.0 0.00025
413.0 0.00026
414.0 0.00027
415.0 0.00028
416.0 0.0003
417.0 0.00031
418.0 0.00032
419.0 0.00033
420.0 0.00034
421.0 0.00035
422.0 0.00036
423.0 0.00036
424.0 0.00037
425.0 0.00037
426.0 0.00038
427.0 0.00038
428.0 0.00039
429.0 0.00039
430.0 0.00036
431.0 0.00033
432.0 0.0003
433.0 0.00027
434.0 0.00024
435.0 0.00021
436.0 0.00017
437.0 0.00014
438.0 0.00011
439.0 8e-05
440.0 5e-05
442.0 5e-05
443.0 6e-05
444.0 6e-05
445.0 7e-05
447.0 7e-05
448.0 8e-05
449.0 8e-05
450.0 9e-05
451.0 8e-05
452.0 7e-05
453.0 7e-05
454.0 6e-05
455.0 6e-05
456.0 5e-05
457.0 5e-05
458.0 4e-05
460.0 4e-05
461.0 5e-05
463.0 5e-05
464.0 6e-05
465.0 6e-05
466.0 7e-05
467.0 7e-05
468.0 8e-05
469.0 8e-05
470.0 9e-05
471.0 9e-05
472.0 0.0001
474.0 0.0001
475.0 0.00011
476.0 0.00011
477.0 0.00012
479.0 0.00012
480.0 0.00013
481.0 0.00013
482.0 0.00015
483.0 0.00017
484.0 0.00019
485.0 0.0002
486.0 0.00022
487.0 0.00024
488.0 0.00026
489.0 0.00028
490.0 0.00029
491.0 0.00031
492.0 0.00033
493.0 0.00034
494.0 0.00036
495.0 0.00038
496.0 0.0004
497.0 0.00041
498.0 0.00043
499.0 0.00045
500.0 0.00042
501.0 0.00039
502.0 0.00037
503.0 0.00034
504.0 0.00032
505.0 0.00029
506.0 0.00026
507.0 0.00024
508.0 0.00021
509.0 0.00018
510.0 0.00016
511.0 0.00017
512.0 0.00018
513.0 0.00019
514.0 0.00021
515.0 0.00022
516.0 0.00023
517.0 0.00024
518.0 0.00025
519.0 0.00027
520.0 0.00028
521.0 0.00036
522.0 0.00044
523.0 0.00052
524.0 0.0006
525.0 0.00068
526.0 0.00076
527.0 0.00083
528.0 0.00091
529.0 0.00099
530.0 0.00092
531.0 0.00084
532.0 0.00077
533.0 0.00069
534.0 0.00061
535.0 0.00054
536.0 0.00046
537.0 0.00039
538.0 0.00031
539.0 0.00023
540.0 0.00016
541.0 0.00024
542.0 0.00032
543.0 0.0004
544.0 0.00048
545.0 0.00056
546.0 0.00064
547.0 0.00073
548.0 0.00081
549.0 0.00089
550.0 0.00097
551.0 0.00095
552.0 0.00093
553.0 0.00091
554.0 0.00089
555.0 0.00086
556.0 0.00084
557.0 0.00082
558.0 0.0008
559.0 0.00078
560.0 0.00075
561.0 0.00071
562.0 0.00066
563.0 0.00061
564.0 0.00056
565.0 0.00051
566.0 0.00046
567.0 0.00042
568.0 0.00037
569.0 0.00032
570.0 0.00027
571.0 0.00022
572.0 0.00024
573.0 0.00026
574.0 0.00028
575.0 0.00029
576.0 0.00031
577.0 0.00033
578.0 0.00035
579.0 0.00037
580.0 0.00039
581.0 0.00045
582.0 0.0005
583.0 0.00056
584.0 0.00061
585.0 0.00067
586.0 0.00072
587.0 0.00078
588.0 0.00083
589.0 0.00087
590.0 0.00093
591.0 0.00088
592.0 0.00082
593.0 0.00077
594.0 0.00072
595.0 0.00066
596.0 0.00061
597.0 0.00056
598.0 0.0005
599.0 0.00045
600.0 0.0004
601.0 0.00034
602.0 0.00032
603.0 0.0003
604.0 0.00027
605.0 0.00025
606.0 0.00023
607.0 0.0002
608.0 0.00018
609.0 0.00016
610.0 0.00013
611.0 0.00015
612.0 0.00017
613.0 0.00019
614.0 0.00021
615.0 0.00022
616.0 0.00024
617.0 0.00026
618.0 0.00028
619.0 0.0003
620.0 0.00031
621.0 0.00032
627.0 0.00032
628.0 0.00031
629.0 0.00032
630.0 0.00032
631.0 0.00035
632.0 0.00039
633.0 0.00042
634.0 0.00046
635.0 0.00049
636.0 0.00053
637.0 0.00056
638.0 0.0006
639.0 0.00063
640.0 0.00067
641.0 0.00066
645.0 0.00066
646.0 0.00065
647.0 0.00065
648.0 0.00064
654.0 0.00064
655.0 0.00063
659.0 0.00063
660.0 0.00061
661.0 0.00058
662.0 0.00056
663.0 0.00053
664.0 0.00051
665.0 0.00048
666.0 0.00046
667.0 0.00043
668.0 0.00041
669.0 0.00038
670.0 0.00039
671.0 0.0004
672.0 0.0004
673.0 0.00041
674.0 0.00041
675.0 0.00042
676.0 0.00042
677.0 0.00043
678.0 0.00044
679.0 0.00044
680.0 0.00045
681.0 0.00044
682.0 0.00043
683.0 0.00042
684.0 0.00041
685.0 0.00041
686.0 0.0004
687.0 0.00034
688.0 0.00034
689.0 0.00033
690.0 0.00033
691.0 0.00032
692.0 0.0003
693.0 0.00028
694.0 0.00026
695.0 0.00024
696.0 0.00021
697.0 0.00019
698.0 0.00017
699.0 0.00014
700.0 0.00016
701.0 0.00017
702.0 0.00019
703.0 0.0002
704.0 0.00022
705.0 0.00023
706.0 0.00025
707.0 0.00026
708.0 0.00028
709.0 0.0003
710.0 0.00031
711.0 0.00031
712.0 0.0003
713.0 0.0003
714.0 0.00029
715.0 0.00029
716.0 0.00028
717.0 0.00027
718.0 0.00026
719.0 0.00026
720.0 0.00025
721.0 0.00026
722.0 0.00027
723.0 0.00026
731.0 0.00026
732.0 0.00027
739.0 0.00027
740.0 0.00026
741.0 0.00025
742.0 0.00024
743.0 0.00022
744.0 0.00021
745.0 0.0002
746.0 0.00019
747.0 0.00017
748.0 0.00016
749.0 0.00015
750.0 0.00013
751.0 0.00012
752.0 0.00011
753.0 0.0001
754.0 8e-05
755.0 7e-05
756.0 6e-05
757.0 4e-05
758.0 3e-05
759.0 2e-05
760.0 1e-05
792.0 1e-05
793.0 2e-05
799.0 2e-05
800.0 3e-05
802.0 3e-05
803.0 4e-05
809.0 4e-05
810.0 5e-05
815.0 5e-05
816.0 4e-05
817.0 5e-05
819.0 5e-05
820.0 4e-05
822.0 4e-05
823.0 3e-05
826.0 3e-05
827.0 2e-05
829.0 2e-05
830.0 1e-05
840.0 1e-05
841.0 2e-05
843.0 2e-05
844.0 3e-05
845.0 3e-05
846.0 4e-05
847.0 4e-05
848.0 5e-05
849.0 5e-05
850.0 6e-05
851.0 6e-05
852.0 5e-05
853.0 5e-05
854.0 4e-05
855.0 4e-05
856.0 3e-05
857.0 3e-05
858.0 2e-05
859.0 2e-05
860.0 1e-05
861.0 1e-05
862.0 2e-05
863.0 4e-05
864.0 6e-05
865.0 7e-05
866.0 9e-05
867.0 0.00011
868.0 0.00013
869.0 0.00014
870.0 0.00016
871.0 0.00017
872.0 0.00019
873.0 0.0002
874.0 0.00022
875.0 0.00024
876.0 0.00025
877.0 0.00027
878.0 0.00028
879.0 0.0003
880.0 0.00031
881.0 0.00033
882.0 0.00035
883.0 0.00037
884.0 0.00038
885.0 0.0004
886.0 0.00042
887.0 0.00044
888.0 0.00046
889.0 0.00047
890.0 0.00047
891.0 0.00048
892.0 0.00049
897.0 0.00049
898.0 0.0005
899.0 0.00049
900.0 0.0005
901.0 0.00051
902.0 0.00056
903.0 0.00063
904.0 0.0007
905.0 0.00075
906.0 0.00079
907.0 0.00082
908.0 0.00085
909.0 0.0009
910.0 0.00102
911.0 0.00101
912.0 0.00119
913.0 0.00133
914.0 0.00112
915.0 0.0009
916.0 0.00107
917.0 0.00124
918.0 0.00149
919.0 0.00177
920.0 0.00189
921.0 0.00195
922.0 0.00224
923.0 0.00252
924.0 0.00255
925.0 0.00261
926.0 0.00279
927.0 0.00293
928.0 0.0031
929.0 0.00324
930.0 0.00335
931.0 0.00333
932.0 0.00344
933.0 0.00356
934.0 0.00372
935.0 0.00409
936.0 0.00476
937.0 0.00525
938.0 0.00944
939.0 0.00929
940.0 0.01103
941.0 0.01236
942.0 0.01536
943.0 0.01734
944.0 0.02477
945.0 0.03344
946.0 0.0333
947.0 0.06935
948.0 0.07089
949.0 0.13766
950.0 0.14899
951.0 0.2222
952.0 0.26819
953.0 0.33029
954.0 0.36356
955.0 0.37944
956.0 0.38361
957.0 0.41531
958.0 0.4173
959.0 0.41288
960.0 0.40587
961.0 0.40753
962.0 0.4084
963.0 0.42067
964.0 0.41972
965.0 0.41561
966.0 0.41618
967.0 0.42413
968.0 0.4376
969.0 0.44231
970.0 0.44141
971.0 0.4399
972.0 0.43655
973.0 0.43076
974.0 0.42379
975.0 0.41928
976.0 0.423
977.0 0.4161
978.0 0.41249
979.0 0.41121
980.0 0.41448
981.0 0.41454
982.0 0.40885
983.0 0.40709
984.0 0.40643
985.0 0.40406
986.0 0.40309
987.0 0.39992
988.0 0.39117
989.0 0.38946
990.0 0.38625
991.0 0.38061
992.0 0.37537
993.0 0.36961
994.0 0.36596
995.0 0.36229
996.0 0.35647
997.0 0.35065
998.0 0.34471
999.0 0.33923
1000.0 0.33297
1001.0 0.32628
1002.0 0.31937
1003.0 0.3142
1004.0 0.30791
1005.0 0.30161
1006.0 0.29538
1007.0 0.28914
1008.0 0.27709
1009.0 0.27331
1010.0 0.27238
1011.0 0.26145
1012.0 0.25548
1013.0 0.24949
1014.0 0.243
1015.0 0.23683
1016.0 0.23037
1017.0 0.22392
1018.0 0.21715
1019.0 0.21009
1020.0 0.20362
1021.0 0.19741
1022.0 0.19065
1023.0 0.18392
1024.0 0.17709
1025.0 0.17098
1026.0 0.16531
1027.0 0.15941
1028.0 0.15414
1029.0 0.14907
1030.0 0.14292
1031.0 0.13695
1032.0 0.13104
1033.0 0.12514
1034.0 0.11845
1035.0 0.11176
1036.0 0.10478
1037.0 0.09781
1038.0 0.09443
1039.0 0.09105
1040.0 0.08775
1041.0 0.08444
1042.0 0.08211
1043.0 0.07978
1044.0 0.07729
1045.0 0.0747
1046.0 0.07237
1047.0 0.07004
1048.0 0.06782
1049.0 0.06569
1050.0 0.06331
1051.0 0.06084
1052.0 0.05644
1053.0 0.05408
1054.0 0.05155
1055.0 0.0491
1056.0 0.04659
1057.0 0.04414
1058.0 0.04159
1059.0 0.03915
1060.0 0.03675
1061.0 0.03426
1062.0 0.03178
1063.0 0.02934
1064.0 0.02687
1065.0 0.0244
1066.0 0.02197
1067.0 0.01954
1068.0 0.01707
1069.0 0.01464
1070.0 0.01224
1071.0 0.0098
1072.0 0.00737
1073.0 0.00436
1074.0 0.00114
1075.0 0.00017
1076.0 0.00093
1077.0 0.00015
1078.0 0.00011
1079.0 8e-05
1080.0 0.00024
1081.0 0.00022
1082.0 0.00044
1083.0 0.00066
1084.0 3e-05
1085.0 0.0
1086.0 0.00029
1087.0 9e-05
1088.0 5e-05
1089.0 1e-05
1090.0 0.00029
1091.0 0.00073
1092.0 0.00104
1093.0 0.00134
1094.0 0.00071
1095.0 9e-05
1096.0 0.00011
1097.0 2e-05
1098.0 4e-05
1099.0 7e-05
1100.0 0.0
