# %ECSV 0.9
# ---
# datatype:
# - {name: wavelength, unit: nm, datatype: float64}
# - {name: response, datatype: float64}
# meta: !!omap
# - {url: 'http://www.ctio.noao.edu/noao/content/dark-energy-camera-decam'}
# - {band_name: g}
# - {airmass: 1.3}
# - {description: 'DECam g-band throughput from a spreadsheet created in 2014 by William
#     Wester.
# 
#     Throughputs include an airmass 1.3 reference atmosphere provided by Ting Li.'}
# - {group_name: decam2014}
wavelength response
341.0 0.0
342.0 0.00025
343.0 0.00024
344.0 0.00024
345.0 0.00023
346.0 0.00023
347.0 0.00022
348.0 0.00021
349.0 0.00021
350.0 0.0002
351.0 0.0002
352.0 0.00019
354.0 0.00019
355.0 0.00018
358.0 0.00018
359.0 0.00017
369.0 0.00017
370.0 0.00018
371.0 0.00018
372.0 0.00017
374.0 0.00017
375.0 0.00018
376.0 0.00019
377.0 0.00019
378.0 0.00021
379.0 0.00024
380.0 0.00026
381.0 0.00029
382.0 0.00033
383.0 0.00039
384.0 0.00044
385.0 0.00052
386.0 0.00063
387.0 0.00073
388.0 0.0009
389.0 0.00107
390.0 0.00134
391.0 0.0018
392.0 0.00241
393.0 0.00313
394.0 0.00385
395.0 0.01242
396.0 0.04417
397.0 0.0857
398.0 0.11965
399.0 0.12397
400.0 0.13403
401.0 0.13963
402.0 0.14745
403.0 0.14977
404.0 0.15125
405.0 0.15274
406.0 0.15597
407.0 0.15923
408.0 0.16179
409.0 0.16405
410.0 0.16628
411.0 0.16802
412.0 0.17082
413.0 0.17365
414.0 0.17575
415.0 0.17819
416.0 0.18354
417.0 0.18631
418.0 0.18824
419.0 0.19017
420.0 0.19075
421.0 0.19168
422.0 0.19447
423.0 0.19692
424.0 0.20192
425.0 0.2038
426.0 0.20665
427.0 0.20913
428.0 0.21235
429.0 0.2152
430.0 0.21956
431.0 0.22112
432.0 0.22403
433.0 0.22447
434.0 0.22781
435.0 0.23068
436.0 0.23272
437.0 0.23325
438.0 0.23886
439.0 0.24306
440.0 0.24334
441.0 0.24795
442.0 0.24901
443.0 0.25135
444.0 0.25264
445.0 0.25457
446.0 0.25654
447.0 0.25874
448.0 0.26059
449.0 0.26195
450.0 0.26252
451.0 0.26576
452.0 0.2669
453.0 0.26996
454.0 0.27182
455.0 0.27432
456.0 0.27366
457.0 0.27639
458.0 0.27663
459.0 0.27827
460.0 0.28077
461.0 0.28185
462.0 0.28471
463.0 0.28687
464.0 0.28892
465.0 0.28982
466.0 0.291
467.0 0.29274
468.0 0.29265
469.0 0.29258
470.0 0.2942
471.0 0.29852
472.0 0.29741
473.0 0.29887
474.0 0.30065
475.0 0.30228
476.0 0.30478
477.0 0.3055
478.0 0.30591
479.0 0.30625
480.0 0.30734
481.0 0.31012
482.0 0.31095
483.0 0.31283
484.0 0.31411
485.0 0.31356
486.0 0.31298
487.0 0.3149
488.0 0.31702
489.0 0.31904
490.0 0.31977
491.0 0.32262
492.0 0.32339
493.0 0.3234
494.0 0.32311
495.0 0.32308
496.0 0.32533
497.0 0.32642
498.0 0.32876
499.0 0.33072
500.0 0.33022
501.0 0.33209
502.0 0.33272
503.0 0.33466
504.0 0.33534
505.0 0.3362
506.0 0.33652
507.0 0.33795
508.0 0.33978
509.0 0.34055
510.0 0.3427
511.0 0.34272
512.0 0.34157
513.0 0.34206
514.0 0.34304
515.0 0.3458
516.0 0.34685
517.0 0.34807
518.0 0.34834
519.0 0.34929
520.0 0.35023
521.0 0.35198
522.0 0.35408
523.0 0.35637
524.0 0.35843
525.0 0.35922
526.0 0.36046
527.0 0.35977
528.0 0.36034
529.0 0.36029
530.0 0.36066
531.0 0.36117
532.0 0.36331
533.0 0.36362
534.0 0.3655
535.0 0.36708
536.0 0.36876
537.0 0.36906
538.0 0.36849
539.0 0.365
540.0 0.36467
541.0 0.36242
542.0 0.36734
543.0 0.3716
544.0 0.37607
545.0 0.32277
546.0 0.32495
547.0 0.24254
548.0 0.13981
549.0 0.06281
550.0 0.06486
551.0 0.01255
552.0 0.00601
553.0 0.00317
554.0 0.00165
555.0 0.00304
556.0 0.00059
557.0 0.00042
558.0 0.00032
559.0 0.00038
560.0 0.00023
561.0 0.0002
562.0 0.00019
563.0 0.00016
564.0 0.00025
565.0 0.00014
566.0 0.00013
567.0 0.00012
568.0 0.00012
569.0 0.00011
570.0 0.00011
571.0 0.00017
572.0 0.0001
573.0 9e-05
574.0 9e-05
575.0 0.0001
576.0 9e-05
580.0 9e-05
581.0 8e-05
587.0 8e-05
588.0 7e-05
598.0 7e-05
599.0 6e-05
602.0 6e-05
603.0 5e-05
604.0 5e-05
605.0 4e-05
606.0 3e-05
607.0 3e-05
608.0 2e-05
609.0 2e-05
610.0 1e-05
681.0 1e-05
682.0 2e-05
684.0 2e-05
685.0 3e-05
695.0 3e-05
696.0 2e-05
707.0 2e-05
708.0 3e-05
721.0 3e-05
722.0 4e-05
724.0 4e-05
725.0 5e-05
727.0 5e-05
728.0 6e-05
730.0 6e-05
731.0 7e-05
734.0 7e-05
735.0 6e-05
741.0 6e-05
742.0 7e-05
746.0 7e-05
747.0 8e-05
749.0 8e-05
750.0 9e-05
751.0 9e-05
752.0 0.0001
753.0 0.00011
754.0 0.00011
755.0 0.00012
756.0 0.00013
757.0 0.00013
758.0 0.00014
759.0 0.00014
760.0 7e-05
761.0 6e-05
762.0 0.00012
763.0 0.0001
764.0 0.00012
765.0 0.00014
766.0 0.00018
767.0 0.0002
768.0 0.00022
769.0 0.00024
770.0 0.00025
771.0 0.00027
772.0 0.00028
773.0 0.0003
774.0 0.00031
775.0 0.00033
776.0 0.00034
777.0 0.00035
778.0 0.00037
779.0 0.00038
780.0 0.0004
781.0 0.00042
782.0 0.00045
783.0 0.00047
784.0 0.0005
785.0 0.00052
786.0 0.00055
787.0 0.00057
788.0 0.00059
789.0 0.00061
790.0 0.00064
791.0 0.00068
792.0 0.00071
793.0 0.00075
794.0 0.00079
795.0 0.00083
796.0 0.00086
797.0 0.00089
798.0 0.00094
799.0 0.00097
805.0 0.00097
806.0 0.00098
807.0 0.00099
814.0 0.00099
815.0 0.00098
816.0 0.00097
817.0 0.00098
818.0 0.00098
819.0 0.00099
820.0 0.001
821.0 0.001
822.0 0.00098
823.0 0.00094
824.0 0.00095
825.0 0.00096
826.0 0.00095
827.0 0.00093
828.0 0.00091
829.0 0.0009
830.0 0.0009
831.0 0.00089
832.0 0.00087
833.0 0.00086
834.0 0.00085
835.0 0.00084
836.0 0.00082
837.0 0.00081
838.0 0.00079
839.0 0.00078
840.0 0.00076
841.0 0.00075
842.0 0.00074
845.0 0.00074
846.0 0.00073
847.0 0.00073
848.0 0.00072
849.0 0.00072
850.0 0.00071
861.0 0.00071
862.0 0.0007
863.0 0.0007
864.0 0.00069
865.0 0.00068
866.0 0.00068
867.0 0.00067
868.0 0.00067
869.0 0.00066
870.0 0.00066
871.0 0.00065
873.0 0.00065
874.0 0.00064
876.0 0.00064
877.0 0.00063
879.0 0.00063
880.0 0.00062
882.0 0.00062
883.0 0.00061
884.0 0.00061
885.0 0.0006
887.0 0.0006
888.0 0.00059
889.0 0.0006
894.0 0.0006
895.0 0.00059
896.0 0.00059
897.0 0.00058
898.0 0.00058
899.0 0.00057
902.0 0.00057
903.0 0.0006
904.0 0.00062
905.0 0.00062
906.0 0.00061
907.0 0.0006
908.0 0.00059
909.0 0.00059
910.0 0.0006
912.0 0.0006
913.0 0.00058
914.0 0.00059
917.0 0.00059
918.0 0.0006
919.0 0.00061
920.0 0.00061
921.0 0.0006
922.0 0.0006
923.0 0.00059
924.0 0.00058
925.0 0.00057
926.0 0.00056
927.0 0.00055
928.0 0.00054
929.0 0.00051
930.0 0.00049
931.0 0.00046
932.0 0.00042
933.0 0.00039
934.0 0.00036
935.0 0.00035
936.0 0.00036
937.0 0.00035
938.0 0.00038
939.0 0.00044
940.0 0.00045
941.0 0.00045
942.0 0.00043
943.0 0.00039
944.0 0.00039
945.0 0.0004
946.0 0.0004
947.0 0.00041
948.0 0.00042
950.0 0.00042
951.0 0.00044
952.0 0.00043
953.0 0.00044
954.0 0.00045
955.0 0.00044
956.0 0.00044
957.0 0.00048
960.0 0.00048
961.0 0.00047
962.0 0.00047
963.0 0.00049
964.0 0.00049
965.0 0.00048
966.0 0.00048
967.0 0.00049
968.0 0.00051
971.0 0.00051
972.0 0.0005
973.0 0.0005
974.0 0.00049
975.0 0.00048
976.0 0.00048
977.0 0.00049
981.0 0.00049
982.0 0.00048
984.0 0.00048
985.0 0.00047
987.0 0.00047
988.0 0.00046
989.0 0.00046
990.0 0.00045
991.0 0.00045
992.0 0.00044
993.0 0.00043
994.0 0.00043
995.0 0.00042
996.0 0.00041
997.0 0.00041
998.0 0.0004
999.0 0.00039
1000.0 0.00039
1001.0 0.00038
1002.0 0.00037
1003.0 0.00037
1004.0 0.00036
1005.0 0.00035
1006.0 0.00035
1007.0 0.00034
1008.0 0.00033
1009.0 0.00033
1010.0 0.00032
1011.0 0.00032
1012.0 0.00031
1013.0 0.0003
1014.0 0.0003
1015.0 0.00029
1016.0 0.00028
1017.0 0.00028
1018.0 0.00027
1019.0 0.00026
1020.0 0.00026
1021.0 0.00025
1022.0 0.00024
1023.0 0.00024
1024.0 0.00023
1025.0 0.00022
1026.0 0.00021
1027.0 0.00021
1028.0 0.0002
1029.0 0.00019
1030.0 0.00019
1031.0 0.00018
1032.0 0.00017
1033.0 0.00017
1034.0 0.00016
1035.0 0.00015
1036.0 0.00014
1037.0 0.00014
1038.0 0.00013
1039.0 0.00012
1041.0 0.00012
1042.0 0.00011
1044.0 0.00011
1045.0 0.0001
1047.0 0.0001
1048.0 9e-05
1051.0 9e-05
1052.0 8e-05
1060.0 8e-05
1061.0 7e-05
1068.0 7e-05
1069.0 6e-05
1077.0 6e-05
1078.0 5e-05
1088.0 5e-05
1089.0 4e-05
1097.0 4e-05
1098.0 0.0
